number of photons = 10000000
bin size = 0.03000 [cm] 
last row is overflow. Ignore.
r [cm] 	 Fsph [1/cm2] 	 Fcyl [1/cm2] 	 Fpla [1/cm2]
0.01500 	 3.484e+02 	 1.587e+01 	 3.946e+00 
0.04500 	 3.758e+01 	 4.870e+00 	 2.585e+00 
0.07500 	 1.311e+01 	 2.749e+00 	 2.095e+00 
0.10500 	 6.491e+00 	 1.841e+00 	 1.782e+00 
0.13500 	 3.808e+00 	 1.352e+00 	 1.560e+00 
0.16500 	 2.476e+00 	 1.052e+00 	 1.383e+00 
0.19500 	 1.719e+00 	 8.432e-01 	 1.246e+00 
0.22500 	 1.257e+00 	 6.935e-01 	 1.128e+00 
0.25500 	 9.505e-01 	 5.825e-01 	 1.030e+00 
0.28500 	 7.355e-01 	 4.966e-01 	 9.444e-01 
0.31500 	 5.838e-01 	 4.306e-01 	 8.697e-01 
0.34500 	 4.748e-01 	 3.745e-01 	 8.053e-01 
0.37500 	 3.904e-01 	 3.299e-01 	 7.445e-01 
0.40500 	 3.241e-01 	 2.907e-01 	 6.950e-01 
0.43500 	 2.718e-01 	 2.591e-01 	 6.463e-01 
0.46500 	 2.307e-01 	 2.311e-01 	 6.043e-01 
0.49500 	 1.981e-01 	 2.076e-01 	 5.661e-01 
0.52500 	 1.707e-01 	 1.882e-01 	 5.307e-01 
0.55500 	 1.477e-01 	 1.700e-01 	 4.982e-01 
0.58500 	 1.299e-01 	 1.554e-01 	 4.689e-01 
0.61500 	 1.138e-01 	 1.418e-01 	 4.414e-01 
0.64500 	 1.005e-01 	 1.298e-01 	 4.150e-01 
0.67500 	 8.896e-02 	 1.187e-01 	 3.938e-01 
0.70500 	 7.942e-02 	 1.094e-01 	 3.708e-01 
0.73500 	 7.053e-02 	 1.008e-01 	 3.488e-01 
0.76500 	 6.329e-02 	 9.276e-02 	 3.324e-01 
0.79500 	 5.689e-02 	 8.594e-02 	 3.139e-01 
0.82500 	 5.117e-02 	 7.998e-02 	 2.971e-01 
0.85500 	 4.639e-02 	 7.375e-02 	 2.827e-01 
0.88500 	 4.186e-02 	 6.833e-02 	 2.659e-01 
0.91500 	 3.789e-02 	 6.370e-02 	 2.523e-01 
0.94500 	 3.466e-02 	 5.907e-02 	 2.426e-01 
0.97500 	 3.162e-02 	 5.551e-02 	 2.293e-01 
1.00500 	 2.886e-02 	 5.180e-02 	 2.179e-01 
1.03500 	 2.646e-02 	 4.810e-02 	 2.072e-01 
1.06500 	 2.417e-02 	 4.510e-02 	 1.984e-01 
1.09500 	 2.217e-02 	 4.225e-02 	 1.865e-01 
1.12500 	 2.042e-02 	 3.955e-02 	 1.779e-01 
1.15500 	 1.886e-02 	 3.719e-02 	 1.701e-01 
1.18500 	 1.728e-02 	 3.485e-02 	 1.617e-01 
1.21500 	 1.599e-02 	 3.298e-02 	 1.553e-01 
1.24500 	 1.479e-02 	 3.071e-02 	 1.472e-01 
1.27500 	 1.364e-02 	 2.914e-02 	 1.405e-01 
1.30500 	 1.271e-02 	 2.714e-02 	 1.353e-01 
1.33500 	 1.177e-02 	 2.570e-02 	 1.286e-01 
1.36500 	 1.093e-02 	 2.428e-02 	 1.230e-01 
1.39500 	 1.021e-02 	 2.283e-02 	 1.169e-01 
1.42500 	 9.384e-03 	 2.148e-02 	 1.110e-01 
1.45500 	 8.792e-03 	 2.048e-02 	 1.068e-01 
1.48500 	 8.173e-03 	 1.922e-02 	 1.016e-01 
1.51500 	 7.640e-03 	 1.827e-02 	 9.847e-02 
1.54500 	 7.128e-03 	 1.729e-02 	 9.323e-02 
1.57500 	 6.689e-03 	 1.622e-02 	 8.908e-02 
1.60500 	 6.235e-03 	 1.538e-02 	 8.509e-02 
1.63500 	 5.802e-03 	 1.466e-02 	 8.195e-02 
1.66500 	 5.444e-03 	 1.378e-02 	 7.874e-02 
1.69500 	 5.088e-03 	 1.316e-02 	 7.468e-02 
1.72500 	 4.749e-03 	 1.235e-02 	 7.285e-02 
1.75500 	 4.492e-03 	 1.175e-02 	 6.871e-02 
1.78500 	 4.196e-03 	 1.122e-02 	 6.603e-02 
1.81500 	 3.914e-03 	 1.053e-02 	 6.272e-02 
1.84500 	 3.668e-03 	 1.006e-02 	 6.065e-02 
1.87500 	 3.490e-03 	 9.531e-03 	 5.821e-02 
1.90500 	 3.256e-03 	 8.998e-03 	 5.626e-02 
1.93500 	 3.086e-03 	 8.572e-03 	 5.356e-02 
1.96500 	 2.901e-03 	 8.230e-03 	 5.141e-02 
1.99500 	 2.721e-03 	 7.803e-03 	 4.927e-02 
2.02500 	 2.539e-03 	 7.453e-03 	 4.704e-02 
2.05500 	 2.406e-03 	 7.050e-03 	 4.613e-02 
2.08500 	 2.280e-03 	 6.727e-03 	 4.364e-02 
2.11500 	 2.141e-03 	 6.451e-03 	 4.108e-02 
2.14500 	 2.031e-03 	 6.085e-03 	 4.014e-02 
2.17500 	 1.921e-03 	 5.809e-03 	 3.903e-02 
2.20500 	 1.821e-03 	 5.498e-03 	 3.659e-02 
2.23500 	 1.693e-03 	 5.208e-03 	 3.544e-02 
2.26500 	 1.601e-03 	 5.049e-03 	 3.395e-02 
2.29500 	 1.527e-03 	 4.758e-03 	 3.290e-02 
2.32500 	 1.447e-03 	 4.544e-03 	 3.096e-02 
2.35500 	 1.364e-03 	 4.344e-03 	 3.031e-02 
2.38500 	 1.288e-03 	 4.158e-03 	 2.956e-02 
2.41500 	 1.209e-03 	 3.951e-03 	 2.808e-02 
2.44500 	 1.147e-03 	 3.775e-03 	 2.698e-02 
2.47500 	 1.095e-03 	 3.615e-03 	 2.532e-02 
2.50500 	 1.030e-03 	 3.458e-03 	 2.452e-02 
2.53500 	 9.862e-04 	 3.338e-03 	 2.353e-02 
2.56500 	 9.346e-04 	 3.124e-03 	 2.262e-02 
2.59500 	 8.826e-04 	 3.013e-03 	 2.183e-02 
2.62500 	 8.327e-04 	 2.855e-03 	 2.079e-02 
2.65500 	 7.879e-04 	 2.757e-03 	 2.030e-02 
2.68500 	 7.382e-04 	 2.595e-03 	 1.937e-02 
2.71500 	 7.127e-04 	 2.538e-03 	 1.861e-02 
2.74500 	 6.769e-04 	 2.396e-03 	 1.775e-02 
2.77500 	 6.434e-04 	 2.299e-03 	 1.781e-02 
2.80500 	 6.173e-04 	 2.176e-03 	 1.650e-02 
2.83500 	 5.834e-04 	 2.099e-03 	 1.597e-02 
2.86500 	 5.555e-04 	 2.005e-03 	 1.567e-02 
2.89500 	 5.290e-04 	 1.892e-03 	 1.466e-02 
2.92500 	 5.001e-04 	 1.821e-03 	 1.438e-02 
2.95500 	 4.723e-04 	 1.757e-03 	 1.389e-02 
2.98500 	 4.483e-04 	 1.682e-03 	 1.356e-02 
3.01500 	 1.451e-02 	 4.898e-02 	 3.540e-01 
